History written: Fri Mar  8 07:40:36 2019
produced by benjam23
##### PDFgui fit
stype=N  neutron scattering
qmax=35.00
qdamp=0.0142651
qbroad=0.0240589
dscale=0.951818
fitrmin=0.5
fitrmax=50
# metadata
temperature=15.0
##### start data
#L r(A) G(r) d_r d_Gr Gdiff
0.49 -0.182915 0.0 93.0349 93.0349
0.5 -0.457703 0.0 92.5067 92.5067
0.51 -0.72316 0.0 92.1142 92.1142
0.52 -0.952338 0.0 91.8223 91.8223
0.53 -1.12214 0.0 91.5881 91.5881
0.54 -1.21606 0.0 91.3661 91.3661
0.55 -1.22625 0.0 91.1123 91.1123
0.56 -1.15448 0.0 90.7805 90.7805
0.57 -1.01206 0.0 90.3321 90.3321
0.58 -0.818589 0.0 89.7286 89.7286
0.59 -0.599697 0.0 88.9407 88.9407
0.6 -0.384049 0.0 87.942 87.942
0.61 -0.199955 0.0 86.718 86.718
0.62 -0.071974 0.0 85.257 85.257
0.63 -0.017944 0.0 83.5609 83.5609
0.64 -0.046773 0.0 81.6398 81.6398
0.65 -0.157287 0.0 79.5153 79.5153
0.66 -0.338278 0.0 77.2223 77.2223
0.67 -0.569763 0.0 74.8068 74.8068
0.68 -0.825318 0.0 72.3253 72.3253
0.69 -1.07522 0.0 69.8452 69.8452
0.7 -1.29004 0.0 67.436 67.436
0.71 -1.44422 0.0 65.1722 65.1722
0.72 -1.51925 0.0 63.1233 63.1233
0.73 -1.50604 0.0 61.347 61.347
0.74 -1.40614 0.0 59.8891 59.8891
0.75 -1.23175 0.0 58.7728 58.7728
0.76 -1.00435 0.0 57.9994 57.9994
0.77 -0.752265 0.0 57.5433 57.5433
0.78 -0.507283 0.0 57.3523 57.3523
0.79 -0.300864 0.0 57.3549 57.3549
0.8 -0.160281 0.0 57.4583 57.4583
0.81 -0.105226 0.0 57.5612 57.5612
0.82 -0.145281 0.0 57.5593 57.5593
0.83 -0.278573 0.0 57.3586 57.3586
0.84 -0.491809 0.0 56.8788 56.8788
0.85 -0.761693 0.0 56.0657 56.0657
0.86 -1.05759 0.0 54.8966 54.8966
0.87 -1.34514 0.0 53.3831 53.3831
0.88 -1.59035 0.0 51.5704 51.5704
0.89 -1.76381 0.0 49.5348 49.5348
0.9 -1.84428 0.0 47.3783 47.3783
0.91 -1.8215 0.0 45.2165 45.2165
0.92 -1.69764 0.0 43.1686 43.1686
0.93 -1.48722 0.0 41.3452 41.3452
0.94 -1.21563 0.0 39.8366 39.8366
0.95 -0.916252 0.0 38.7053 38.7053
0.96 -0.626478 0.0 37.9735 37.9735
0.97 -0.383293 0.0 37.6263 37.6263
0.98 -0.218729 0.0 37.6087 37.6087
0.99 -0.155858 0.0 37.8299 37.8299
1 -0.205801 0.0 38.1758 38.1758
1.01 -0.366125 0.0 38.5191 38.5191
1.02 -0.620861 0.0 38.7319 38.7319
1.03 -0.942169 0.0 38.7012 38.7012
1.04 -1.29349 0.0 38.3425 38.3425
1.05 -1.63381 0.0 37.6098 37.6098
1.06 -1.92259 0.0 36.4996 36.4996
1.07 -2.12471 0.0 35.0577 35.0577
1.08 -2.21487 0.0 33.3729 33.3729
1.09 -2.18091 0.0 31.5699 31.5699
1.1 -2.02554 0.0 29.7965 29.7965
1.11 -1.76643 0.0 28.2114 28.2114
1.12 -1.43428 0.0 26.9643 26.9643
1.13 -1.06947 0.0 26.1815 26.1815
1.14 -0.717266 0.0 25.9513 25.9513
1.15 -0.422478 0.0 26.3135 26.3135
1.16 -0.223925 0.0 27.2539 27.2539
1.17 -0.149578 0.0 28.6996 28.6996
1.18 -0.212879 0.0 30.5329 30.5329
1.19 -0.410747 0.0 32.5927 32.5927
1.2 -0.723557 0.0 34.6956 34.6956
1.21 -1.11713 0.0 36.6511 36.6511
1.22 -1.54655 0.0 38.2815 38.2815
1.23 -1.96137 0.0 39.4404 39.4404
1.24 -2.31168 0.0 40.0237 40.0237
1.25 -2.55418 0.0 39.9862 39.9862
1.26 -2.65764 0.0 39.3436 39.3436
1.27 -2.60709 0.0 38.1701 38.1701
1.28 -2.406 0.0 36.595 36.595
1.29 -2.07642 0.0 34.7844 34.7844
1.3 -1.65672 0.0 32.9287 32.9287
1.31 -1.19739 0.0 31.2224 31.2224
1.32 -0.75515 0.0 29.8422 29.8422
1.33 -0.386212 0.0 28.9292 28.9292
1.34 -0.139372 0.0 28.5764 28.5764
1.35 -0.0498244 0.0 28.8168 28.8168
1.36 -0.134469 0.0 29.6215 29.6215
1.37 -0.389303 0.0 30.9023 30.9023
1.38 -0.789306 0.0 32.5193 32.5193
1.39 -1.29088 0.0 34.2999 34.2999
1.4 -1.83662 0.0 36.0536 36.0536
1.41 -2.36196 0.0 37.593 37.593
1.42 -2.80284 0.0 38.7538 38.7538
1.43 -3.10361 0.0 39.4106 39.4106
1.44 -3.22408 0.0 39.4931 39.4931
1.45 -3.14499 0.0 38.987 38.987
1.46 -2.871 0.0 37.941 37.941
1.47 -2.43096 0.0 36.458 36.458
1.48 -1.8751 0.0 34.6841 34.6841
1.49 -1.26964 0.0 32.7886 32.7886
1.5 -0.689163 0.0 30.9542 30.9542
1.51 -0.207756 0.0 29.3488 29.3488
1.52 0.110138 0.0 28.1109 28.1109
1.53 0.217971 0.0 27.334 27.334
1.54 0.093469 0.0 27.0615 27.0615
1.55 -0.257746 0.0 27.2767 27.2767
1.56 -0.80181 0.0 27.9108 27.9108
1.57 -1.47973 0.0 28.8507 28.8507
1.58 -2.21369 0.0 29.9537 29.9537
1.59 -2.91593 0.0 31.0619 31.0619
1.6 -3.49915 0.0 32.0252 32.0252
1.61 -3.88734 0.0 32.7183 32.7183
1.62 -4.02559 0.0 33.0546 33.0546
1.63 -3.88776 0.0 32.9958 32.9958
1.64 -3.48094 0.0 32.5599 32.5599
1.65 -2.84595 0.0 31.8169 31.8169
1.66 -2.05379 0.0 30.8808 30.8808
1.67 -1.19819 0.0 29.8972 29.8972
1.68 -0.384987 0.0 29.026 29.026
1.69 0.280427 0.0 28.4196 28.4196
1.7 0.706203 0.0 28.2098 28.2098
1.71 0.826099 0.0 28.4829 28.4829
1.72 0.608968 0.0 29.278 29.278
1.73 0.0643712 0.0 30.5716 30.5716
1.74 -0.756537 0.0 32.2855 32.2855
1.75 -1.76524 0.0 34.2872 34.2872
1.76 -2.84491 0.0 36.4129 36.4129
1.77 -3.86352 0.0 38.4745 38.4745
1.78 -4.68949 0.0 40.2895 40.2895
1.79 -5.20823 0.0 41.6982 41.6982
1.8 -5.33751 0.0 42.5815 42.5815
1.81 -5.03977 0.0 42.8778 42.8778
1.82 -4.32952 0.0 42.5915 42.5915
1.83 -3.27489 0.0 41.7949 41.7949
1.84 -1.99236 0.0 40.6194 40.6194
1.85 -0.63532 0.0 39.2463 39.2463
1.86 0.623028 0.0 37.884 37.884
1.87 1.61029 0.0 36.7477 36.7477
1.88 2.17706 0.0 36.0369 36.0369
1.89 2.2178 0.0 35.9062 35.9062
1.9 1.68788 0.0 36.4521 36.4521
1.91 0.61418 0.0 37.6938 37.6938
1.92 -0.902596 0.0 39.5736 39.5736
1.93 -2.69503 0.0 41.953 41.953
1.94 -4.5457 0.0 44.6267 44.6267
1.95 -6.21248 0.0 47.3375 47.3375
1.96 -7.46044 0.0 49.8074 49.8074
1.97 -8.09748 0.0 51.7545 51.7545
1.98 -8.00989 0.0 52.9289 52.9289
1.99 -7.19406 0.0 53.1361 53.1361
2 -5.78036 0.0 52.2554 52.2554
2.01 -4.04564 0.0 50.2566 50.2566
2.02 -2.41186 0.0 47.2059 47.2059
2.03 -1.4295 0.0 43.2605 43.2605
2.04 -1.7455 0.0 38.6555 38.6555
2.05 -4.05763 0.0 33.6856 33.6856
2.06 -9.0579 0.0 28.6779 28.6779
2.07 -17.3697 0.0 23.9627 23.9627
2.08 -29.4834 0.0 19.8444 19.8444
2.09 -45.6969 0.0 16.5739 16.5739
2.1 -66.0655 0.0 14.3265 14.3265
2.11 -90.3683 0.0 13.1893 13.1893
2.12 -118.093 0.0 13.153 13.153
2.13 -148.443 0.0 14.1124 14.1124
2.14 -180.369 0.0 15.8863 15.8863
2.15 -212.619 0.0 18.2258 18.2258
2.16 -243.809 0.0 20.8458 20.8458
2.17 -272.509 0.0 23.4522 23.4522
2.18 -297.335 0.0 25.7622 25.7622
2.19 -317.04 0.0 27.5392 27.5392
2.2 -330.602 0.0 28.6026 28.6026
2.21 -337.293 0.0 28.8533 28.8533
2.22 -336.739 0.0 28.2649 28.2649
2.23 -328.94 0.0 26.898 26.898
2.24 -314.279 0.0 24.8766 24.8766
2.25 -293.493 0.0 22.3796 22.3796
2.26 -267.625 0.0 19.6235 19.6235
2.27 -237.955 0.0 16.8314 16.8314
2.28 -205.908 0.0 14.2203 14.2203
2.29 -172.962 0.0 11.9775 11.9775
2.3 -140.552 0.0 10.2429 10.2429
2.31 -109.976 0.0 9.10611 9.10611
2.32 -82.3226 0.0 8.5956 8.5956
2.33 -58.4092 0.0 8.68719 8.68719
2.34 -38.7484 0.0 9.30539 9.30539
2.35 -23.5369 0.0 10.3409 10.3409
2.36 -12.6694 0.0 11.6644 11.6644
2.37 -5.77507 0.0 13.1371 13.1371
2.38 -2.27159 0.0 14.6326 14.6326
2.39 -1.43242 0.0 16.0404 16.0404
2.4 -2.45999 0.0 17.282 17.282
2.41 -4.55874 0.0 18.3087 18.3087
2.42 -7.00146 0.0 19.1035 19.1035
2.43 -9.18364 0.0 19.6756 19.6756
2.44 -10.6617 0.0 20.0537 20.0537
2.45 -11.1731 0.0 20.2741 20.2741
2.46 -10.6369 0.0 20.3759 20.3759
2.47 -9.13763 0.0 20.3846 20.3846
2.48 -6.89346 0.0 20.3145 20.3145
2.49 -4.21435 0.0 20.1564 20.1564
2.5 -1.45432 0.0 19.8843 19.8843
2.51 1.03678 0.0 19.4542 19.4542
2.52 2.95685 0.0 18.8162 18.8162
2.53 4.08642 0.0 17.9156 17.9156
2.54 4.31157 0.0 16.7094 16.7094
2.55 3.63316 0.0 15.1718 15.1718
2.56 2.16215 0.0 13.3039 13.3039
2.57 0.102275 0.0 11.1317 11.1317
2.58 -2.27743 0.0 8.71943 8.71943
2.59 -4.67674 0.0 6.15274 6.15274
2.6 -6.80077 0.0 3.54277 3.54277
2.61 -8.39495 0.0 1.01195 1.01195
2.62 -9.27422 0.0 -1.31778 -1.31778
2.63 -9.34354 0.0 -3.33846 -3.33846
2.64 -8.60745 0.0 -4.96255 -4.96255
2.65 -7.1679 0.0 -6.1381 -6.1381
2.66 -5.21073 0.0 -6.85327 -6.85327
2.67 -2.98258 0.0 -7.14042 -7.14042
2.68 -0.760971 0.0 -7.07103 -7.07103
2.69 1.17896 0.0 -6.75196 -6.75196
2.7 2.59728 0.0 -6.31628 -6.31628
2.71 3.31784 0.0 -5.90684 -5.90684
2.72 3.24929 0.0 -5.66629 -5.66629
2.73 2.3963 0.0 -5.7203 -5.7203
2.74 0.859424 0.0 -6.16642 -6.16642
2.75 -1.17624 0.0 -7.06476 -7.06476
2.76 -3.46254 0.0 -8.43046 -8.43046
2.77 -5.71738 0.0 -10.2336 -10.2336
2.78 -7.65838 0.0 -12.4026 -12.4026
2.79 -9.03709 0.0 -14.8309 -14.8309
2.8 -9.66979 0.0 -17.3882 -17.3882
2.81 -9.4612 0.0 -19.9318 -19.9318
2.82 -8.41799 0.0 -22.324 -22.324
2.83 -6.65001 0.0 -24.44 -24.44
2.84 -4.35852 0.0 -26.1825 -26.1825
2.85 -1.81198 0.0 -27.488 -27.488
2.86 0.688631 0.0 -28.3326 -28.3326
2.87 2.8518 0.0 -28.7278 -28.7278
2.88 4.4406 0.0 -28.7236 -28.7236
2.89 5.31626 0.0 -28.3923 -28.3923
2.9 5.47549 0.0 -27.8275 -27.8275
2.91 5.07704 0.0 -27.126 -27.126
2.92 4.4538 0.0 -26.3858 -26.3858
2.93 4.10823 0.0 -25.6862 -25.6862
2.94 4.68989 0.0 -25.0889 -25.0889
2.95 6.956 0.0 -24.634 -24.634
2.96 11.7171 0.0 -24.3341 -24.3341
2.97 19.7716 0.0 -24.1816 -24.1816
2.98 31.835 0.0 -24.154 -24.154
2.99 48.4676 0.0 -24.2186 -24.2186
3 70.0099 0.0 -24.3429 -24.3429
3.01 96.5281 0.0 -24.5041 -24.5041
3.02 127.778 0.0 -24.6909 -24.6909
3.03 163.188 0.0 -24.9105 -24.9105
3.04 201.871 0.0 -25.1907 -25.1907
3.05 242.648 0.0 -25.5744 -25.5744
3.06 284.113 0.0 -26.1207 -26.1207
3.07 324.696 0.0 -26.8888 -26.8888
3.08 362.759 0.0 -27.9372 -27.9372
3.09 396.691 0.0 -29.3106 -29.3106
3.1 425.001 0.0 -31.0295 -31.0295
3.11 446.42 0.0 -33.0893 -33.0893
3.12 459.972 0.0 -35.4482 -35.4482
3.13 465.041 0.0 -38.0332 -38.0332
3.14 461.408 0.0 -40.7401 -40.7401
3.15 449.264 0.0 -43.4422 -43.4422
3.16 429.197 0.0 -45.9973 -45.9973
3.17 402.152 0.0 -48.2609 -48.2609
3.18 369.368 0.0 -50.0997 -50.0997
3.19 332.3 0.0 -51.3999 -51.3999
3.2 292.528 0.0 -52.0846 -52.0846
3.21 251.657 0.0 -52.1153 -52.1153
3.22 211.229 0.0 -51.4991 -51.4991
3.23 172.631 0.0 -50.2875 -50.2875
3.24 137.026 0.0 -48.575 -48.575
3.25 105.305 0.0 -46.4881 -46.4881
3.26 78.0523 0.0 -44.1783 -44.1783
3.27 55.5411 0.0 -41.8061 -41.8061
3.28 37.7487 0.0 -39.5307 -39.5307
3.29 24.3918 0.0 -37.4988 -37.4988
3.3 14.9772 0.0 -35.8272 -35.8272
3.31 8.86364 0.0 -34.6016 -34.6016
3.32 5.3279 0.0 -33.8709 -33.8709
3.33 3.6309 0.0 -33.6429 -33.6429
3.34 3.07709 0.0 -33.8881 -33.8881
3.35 3.0634 0.0 -34.5504 -34.5504
3.36 3.11439 0.0 -35.5454 -35.5454
3.37 2.90163 0.0 -36.7796 -36.7796
3.38 2.24717 0.0 -38.1542 -38.1542
3.39 1.11216 0.0 -39.5732 -39.5732
3.4 -0.426676 0.0 -40.9583 -40.9583
3.41 -2.2094 0.0 -42.2446 -42.2446
3.42 -4.02989 0.0 -43.3891 -43.3891
3.43 -5.67326 0.0 -44.3677 -44.3677
3.44 -6.94966 0.0 -45.1753 -45.1753
3.45 -7.72115 0.0 -45.8209 -45.8209
3.46 -7.91914 0.0 -46.3219 -46.3219
3.47 -7.55132 0.0 -46.6987 -46.6987
3.48 -6.69789 0.0 -46.9711 -46.9711
3.49 -5.49847 0.0 -47.1525 -47.1525
3.5 -4.13178 0.0 -47.2512 -47.2512
3.51 -2.79112 0.0 -47.2669 -47.2669
3.52 -1.6589 0.0 -47.1941 -47.1941
3.53 -0.883681 0.0 -47.0243 -47.0243
3.54 -0.562581 0.0 -46.7484 -46.7484
3.55 -0.731394 0.0 -46.3656 -46.3656
3.56 -1.36369 0.0 -45.8773 -45.8773
3.57 -2.37913 0.0 -45.2999 -45.2999
3.58 -3.66001 0.0 -44.659 -44.659
3.59 -5.07421 0.0 -43.9888 -43.9888
3.6 -6.50165 0.0 -43.3323 -43.3323
3.61 -7.8611 0.0 -42.7349 -42.7349
3.62 -9.13379 0.0 -42.2382 -42.2382
3.63 -10.3809 0.0 -41.8791 -41.8791
3.64 -11.7517 0.0 -41.6773 -41.6773
3.65 -13.4821 0.0 -41.6379 -41.6379
3.66 -15.8807 0.0 -41.7463 -41.7463
3.67 -19.3054 0.0 -41.9706 -41.9706
3.68 -24.1307 0.0 -42.2603 -42.2603
3.69 -30.7096 0.0 -42.5544 -42.5544
3.7 -39.3325 0.0 -42.7875 -42.7875
3.71 -50.1884 0.0 -42.8986 -42.8986
3.72 -63.3315 0.0 -42.8365 -42.8365
3.73 -78.6572 0.0 -42.5688 -42.5688
3.74 -95.8903 0.0 -42.0877 -42.0877
3.75 -114.587 0.0 -41.412 -41.412
3.76 -134.152 0.0 -40.5922 -40.5922
3.77 -153.868 0.0 -39.6994 -39.6994
3.78 -172.937 0.0 -38.8267 -38.8267
3.79 -190.535 0.0 -38.0782 -38.0782
3.8 -205.859 0.0 -37.5565 -37.5565
3.81 -218.187 0.0 -37.3563 -37.3563
3.82 -226.926 0.0 -37.5485 -37.5485
3.83 -231.655 0.0 -38.177 -38.177
3.84 -232.148 0.0 -39.2435 -39.2435
3.85 -228.396 0.0 -40.7151 -40.7151
3.86 -220.598 0.0 -42.5177 -42.5177
3.87 -209.152 0.0 -44.5435 -44.5435
3.88 -194.621 0.0 -46.6582 -46.6582
3.89 -177.691 0.0 -48.7154 -48.7154
3.9 -159.127 0.0 -50.5663 -50.5663
3.91 -139.719 0.0 -52.0737 -52.0737
3.92 -120.235 0.0 -53.1283 -53.1283
3.93 -101.37 0.0 -53.6533 -53.6533
3.94 -83.7144 0.0 -53.6196 -53.6196
3.95 -67.7261 0.0 -53.0419 -53.0419
3.96 -53.7147 0.0 -51.9823 -51.9823
3.97 -41.8403 0.0 -50.5437 -50.5437
3.98 -32.1224 0.0 -48.8576 -48.8576
3.99 -24.4584 0.0 -47.0786 -47.0786
4 -18.6494 0.0 -45.3626 -45.3626
4.01 -14.43 0.0 -43.86 -43.86
4.02 -11.4988 0.0 -42.6952 -42.6952
4.03 -9.54852 0.0 -41.9595 -41.9595
4.04 -8.29035 0.0 -41.7057 -41.7057
4.05 -7.4738 0.0 -41.9372 -41.9372
4.06 -6.89922 0.0 -42.6168 -42.6168
4.07 -6.42348 0.0 -43.6655 -43.6655
4.08 -5.95912 0.0 -44.9769 -44.9769
4.09 -5.46817 0.0 -46.4208 -46.4208
4.1 -4.95207 0.0 -47.8659 -47.8659
4.11 -4.43928 0.0 -49.1837 -49.1837
4.12 -3.97237 0.0 -50.2646 -50.2646
4.13 -3.59587 0.0 -51.0291 -51.0291
4.14 -3.34607 0.0 -51.4309 -51.4309
4.15 -3.24334 0.0 -51.4597 -51.4597
4.16 -3.2873 0.0 -51.1417 -51.1417
4.17 -3.45448 0.0 -50.5365 -50.5365
4.18 -3.69827 0.0 -49.7247 -49.7247
4.19 -3.95022 0.0 -48.8008 -48.8008
4.2 -4.12236 0.0 -47.8626 -47.8626
4.21 -4.10969 0.0 -47.0003 -47.0003
4.22 -3.79281 0.0 -46.2852 -46.2852
4.23 -3.04041 0.0 -45.7676 -45.7676
4.24 -1.71196 0.0 -45.469 -45.469
4.25 0.338996 0.0 -45.382 -45.382
4.26 3.26041 0.0 -45.4724 -45.4724
4.27 7.19561 0.0 -45.6846 -45.6846
4.28 12.2751 0.0 -45.9531 -45.9531
4.29 18.6061 0.0 -46.2021 -46.2021
4.3 26.2605 0.0 -46.3625 -46.3625
4.31 35.2613 0.0 -46.3753 -46.3753
4.32 45.5692 0.0 -46.1992 -46.1992
4.33 57.0706 0.0 -45.8156 -45.8156
4.34 69.5691 0.0 -45.2271 -45.2271
4.35 82.7813 0.0 -44.4633 -44.4633
4.36 96.3391 0.0 -43.5651 -43.5651
4.37 109.8 0.0 -42.5909 -42.5909
4.38 122.663 0.0 -41.6031 -41.6031
4.39 134.395 0.0 -40.6624 -40.6624
4.4 144.462 0.0 -39.8205 -39.8205
4.41 152.359 0.0 -39.1167 -39.1167
4.42 157.653 0.0 -38.5701 -38.5701
4.43 160.015 0.0 -38.1806 -38.1806
4.44 159.246 0.0 -37.9289 -37.9289
4.45 155.305 0.0 -37.7807 -37.7807
4.46 148.314 0.0 -37.6881 -37.6881
4.47 138.562 0.0 -37.5977 -37.5977
4.48 126.485 0.0 -37.4591 -37.4591
4.49 112.645 0.0 -37.2231 -37.2231
4.5 97.6888 0.0 -36.8568 -36.8568
4.51 82.304 0.0 -36.342 -36.342
4.52 67.1703 0.0 -35.6743 -35.6743
4.53 52.9109 0.0 -34.8699 -34.8699
4.54 40.0481 0.0 -33.9561 -33.9561
4.55 28.9686 0.0 -32.9756 -32.9756
4.56 19.901 0.0 -31.973 -31.973
4.57 12.9071 0.0 -30.9961 -30.9961
4.58 7.88907 0.0 -30.0881 -30.0881
4.59 4.6108 0.0 -29.2838 -29.2838
4.6 2.73139 0.0 -28.6054 -28.6054
4.61 1.84741 0.0 -28.0624 -28.0624
4.62 1.53929 0.0 -27.6513 -27.6513
4.63 1.41667 0.0 -27.3567 -27.3567
4.64 1.15784 0.0 -27.1518 -27.1518
4.65 0.538765 0.0 -27.0108 -27.0108
4.66 -0.551836 0.0 -26.9012 -26.9012
4.67 -2.1131 0.0 -26.7989 -26.7989
4.68 -4.04871 0.0 -26.6843 -26.6843
4.69 -6.19795 0.0 -26.5471 -26.5471
4.7 -8.37782 0.0 -26.3882 -26.3882
4.71 -10.4316 0.0 -26.2154 -26.2154
4.72 -12.2779 0.0 -26.0461 -26.0461
4.73 -13.9545 0.0 -25.8995 -25.8995
4.74 -15.6509 0.0 -25.7971 -25.7971
4.75 -17.7249 0.0 -25.7561 -25.7561
4.76 -20.6995 0.0 -25.7835 -25.7835
4.77 -25.2391 0.0 -25.8789 -25.8789
4.78 -32.1048 0.0 -26.0302 -26.0302
4.79 -42.0932 0.0 -26.2148 -26.2148
4.8 -55.9616 0.0 -26.3994 -26.3994
4.81 -74.3472 0.0 -26.5438 -26.5438
4.82 -97.6881 0.0 -26.6089 -26.6089
4.83 -126.153 0.0 -26.5567 -26.5567
4.84 -159.588 0.0 -26.3597 -26.3597
4.85 -197.485 0.0 -26.0001 -26.0001
4.86 -238.976 0.0 -25.4795 -25.4795
4.87 -282.863 0.0 -24.8117 -24.8117
4.88 -327.666 0.0 -24.0357 -24.0357
4.89 -371.705 0.0 -23.1955 -23.1955
4.9 -413.199 0.0 -22.3551 -22.3551
4.91 -450.374 0.0 -21.5753 -21.5753
4.92 -481.581 0.0 -20.9222 -20.9222
4.93 -505.404 0.0 -20.4451 -20.4451
4.94 -520.754 0.0 -20.185 -20.185
4.95 -526.942 0.0 -20.1558 -20.1558
4.96 -523.724 0.0 -20.3514 -20.3514
4.97 -511.311 0.0 -20.7405 -20.7405
4.98 -490.353 0.0 -21.2621 -21.2621
4.99 -461.889 0.0 -21.8392 -21.8392
5 -427.269 0.0 -22.3741 -22.3741
5.01 -388.062 0.0 -22.7661 -22.7661
5.02 -345.949 0.0 -22.9142 -22.9142
5.03 -302.615 0.0 -22.7238 -22.7238
5.04 -259.649 0.0 -22.1238 -22.1238
5.05 -218.454 0.0 -21.0602 -21.0602
5.06 -180.179 0.0 -19.5176 -19.5176
5.07 -145.68 0.0 -17.5048 -17.5048
5.08 -115.496 0.0 -15.0699 -15.0699
5.09 -89.8601 0.0 -12.2809 -12.2809
5.1 -68.7274 0.0 -9.23964 -9.23964
5.11 -51.8207 0.0 -6.05627 -6.05627
5.12 -38.6881 0.0 -2.85391 -2.85391
5.13 -28.7634 0.0 0.252364 0.252364
5.14 -21.4255 0.0 3.15154 3.15154
5.15 -16.0498 0.0 5.75579 5.75579
5.16 -12.0466 0.0 7.99655 7.99655
5.17 -8.88589 0.0 9.83789 9.83789
5.18 -6.10685 0.0 11.2709 11.2709
5.19 -3.31308 0.0 12.3121 12.3121
5.2 -0.157629 0.0 13.0046 13.0046
5.21 3.6785 0.0 13.4095 13.4095
5.22 8.50943 0.0 13.5966 13.5966
5.23 14.664 0.0 13.644 13.644
5.24 22.4975 0.0 13.6235 13.6235
5.25 32.3922 0.0 13.6018 13.6018
5.26 44.7453 0.0 13.6277 13.6277
5.27 59.944 0.0 13.736 13.736
5.28 78.3294 0.0 13.9436 13.9436
5.29 100.153 0.0 14.2517 14.2517
5.3 125.532 0.0 14.6488 14.6488
5.31 154.404 0.0 15.1124 15.1124
5.32 186.491 0.0 15.6178 15.6178
5.33 221.283 0.0 16.1392 16.1392
5.34 258.026 0.0 16.6621 16.6621
5.35 295.743 0.0 17.1748 17.1748
5.36 333.268 0.0 17.6828 17.6828
5.37 369.3 0.0 18.1992 18.1992
5.38 402.473 0.0 18.7554 18.7554
5.39 431.438 0.0 19.3784 19.3784
5.4 454.947 0.0 20.1119 20.1119
5.41 471.937 0.0 20.991 20.991
5.42 481.6 0.0 22.0442 22.0442
5.43 483.442 0.0 23.2879 23.2879
5.44 477.321 0.0 24.7232 24.7232
5.45 463.456 0.0 26.3326 26.3326
5.46 442.421 0.0 28.0733 28.0733
5.47 415.101 0.0 29.8913 29.8913
5.48 382.642 0.0 31.7104 31.7104
5.49 346.373 0.0 33.4455 33.4455
5.5 307.723 0.0 35.0038 35.0038
5.51 268.135 0.0 36.2995 36.2995
5.52 228.979 0.0 37.2548 37.2548
5.53 191.477 0.0 37.805 37.805
5.54 156.644 0.0 37.9131 37.9131
5.55 125.246 0.0 37.5608 37.5608
5.56 97.7801 0.0 36.7679 36.7679
5.57 74.4727 0.0 35.5743 35.5743
5.58 55.3006 0.0 34.0514 34.0514
5.59 40.0267 0.0 32.2883 32.2883
5.6 28.2475 0.0 30.3925 30.3925
5.61 19.4476 0.0 28.4764 28.4764
5.62 13.0563 0.0 26.6547 26.6547
5.63 8.50017 0.0 25.0308 25.0308
5.64 5.24846 0.0 23.6975 23.6975
5.65 2.8476 0.0 22.7224 22.7224
5.66 0.943126 0.0 22.1519 22.1519
5.67 -0.711418 0.0 22.0004 22.0004
5.68 -2.25786 0.0 22.2629 22.2629
5.69 -3.74694 0.0 22.9029 22.9029
5.7 -5.15942 0.0 23.8704 23.8704
5.71 -6.43123 0.0 25.0962 25.0962
5.72 -7.47962 0.0 26.5036 26.5036
5.73 -8.22692 0.0 28.0159 28.0159
5.74 -8.61957 0.0 29.5596 29.5596
5.75 -8.64073 0.0 31.0687 31.0687
5.76 -8.31547 0.0 32.4955 32.4955
5.77 -7.7089 0.0 33.8029 33.8029
5.78 -6.91812 0.0 34.9751 34.9751
5.79 -6.05952 0.0 36.0115 36.0115
5.8 -5.25371 0.0 36.9257 36.9257
5.81 -4.61006 0.0 37.7401 37.7401
5.82 -4.2131 0.0 38.4891 38.4891
5.83 -4.11247 0.0 39.2065 39.2065
5.84 -4.31752 0.0 39.9265 39.9265
5.85 -4.79722 0.0 40.6812 40.6812
5.86 -5.48523 0.0 41.4942 41.4942
5.87 -6.28919 0.0 42.3832 42.3832
5.88 -7.10311 0.0 43.3551 43.3551
5.89 -7.8212 0.0 44.4112 44.4112
5.9 -8.35131 0.0 45.5473 45.5473
5.91 -8.62632 0.0 46.7503 46.7503
5.92 -8.61219 0.0 48.0082 48.0082
5.93 -8.31157 0.0 49.3076 49.3076
5.94 -7.76251 0.0 50.6355 50.6355
5.95 -7.03261 0.0 51.9776 51.9776
5.96 -6.20895 0.0 53.326 53.326
5.97 -5.3852 0.0 54.6722 54.6722
5.98 -4.64717 0.0 56.0102 56.0102
5.99 -4.05842 0.0 57.3304 57.3304
6 -3.64759 0.0 58.6266 58.6266
6.01 -3.39867 0.0 59.8867 59.8867
6.02 -3.24547 0.0 61.0975 61.0975
6.03 -3.07075 0.0 62.2418 62.2418
6.04 -2.71039 0.0 63.3014 63.3014
6.05 -1.96217 0.0 64.2562 64.2562
6.06 -0.598581 0.0 65.0876 65.0876
6.07 1.61753 0.0 65.7815 65.7815
6.08 4.91553 0.0 66.3295 66.3295
6.09 9.49934 0.0 66.7327 66.7327
6.1 15.5307 0.0 67.0013 67.0013
6.11 23.1148 0.0 67.1602 67.1602
6.12 32.2889 0.0 67.2411 67.2411
6.13 43.0149 0.0 67.2901 67.2901
6.14 55.1761 0.0 67.3579 67.3579
6.15 68.5782 0.0 67.5008 67.5008
6.16 82.955 0.0 67.772 67.772
6.17 97.9766 0.0 68.2224 68.2224
6.18 113.262 0.0 68.8871 68.8871
6.19 128.393 0.0 69.7918 69.7918
6.2 142.932 0.0 70.9416 70.9416
6.21 156.438 0.0 72.3238 72.3238
6.22 168.484 0.0 73.9016 73.9016
6.23 178.677 0.0 75.6283 75.6283
